 no. of detectors, no. of ut parameters                                         
   700     5 
 det, delta, len2,code, 2theta, ut1, ut2, ut3, ut4, ut5                         
     1    0.000   -2.242  300 180.000   2.000   0.000   0.000   0.000   0.100
     2    0.000    4.679  300   0.010   2.000   0.000   0.000   0.000   0.100
     3    0.000   -2.242  300 180.000   2.000   0.000   0.000   0.000   0.100
     4    0.000    2.600  300  15.000   2.000   0.000   0.000   0.000   2.000
     5    0.000    2.600  300  15.000   2.000   0.000   0.000   0.000   2.000
     6    0.000    2.600  300  15.000   2.000   0.000   0.000   0.000   2.000
     7    0.000    2.600  300  15.000   2.000   0.000   0.000   0.000   2.000
     8    0.000    2.600  300  15.000   2.000   0.000   0.000   0.000   2.000
     9    0.000    2.600  300  15.000   2.000   0.000   0.000   0.000   2.000
    10    0.000    2.600  300  15.000   2.000   0.000   0.000   0.000   2.000
    11    0.000    2.600  300  15.000   2.000   0.000   0.000   0.000   2.000
    12    0.000    2.600  300  15.000   2.000   0.000   0.000   0.000   2.000
    13    0.000    2.600  300  15.000   2.000   0.000   0.000   0.000   2.000
    14    0.000    2.600  300  15.000   2.000   0.000   0.000   0.000   2.000
    15    0.000    2.600  300  15.000   2.000   0.000   0.000   0.000   2.000
    16    0.000    2.600  300  15.000   2.000   0.000   0.000   0.000   2.000
    17    0.000    2.600  300  15.000   2.000   0.000   0.000   0.000   2.000
    18    0.000    2.600  300  15.000   2.000   0.000   0.000   0.000   2.000
    19    0.000    2.600  300  15.000   2.000   0.000   0.000   0.000   2.000
    20    0.000    2.600  300  15.000   2.000   0.000   0.000   0.000   2.000
   101    0.000    4.516  300   5.465   2.000   0.000   0.000  90.000   2.000
   102    0.000    4.535  300   5.351   2.000   0.000   0.000  90.000   2.000
   103    0.000    4.554  300   5.238   2.000   0.000   0.000  90.000   2.000
   104    0.000    4.573  300   5.125   2.000   0.000   0.000  90.000   2.000
   105    0.000    4.592  300   5.014   2.000   0.000   0.000  90.000   2.000
   106    0.000    4.611  300   4.904   2.000   0.000   0.000  90.000   2.000
   107    0.000    4.630  300   4.794   2.000   0.000   0.000  90.000   2.000
   108    0.000    4.649  300   4.686   2.000   0.000   0.000  90.000   2.000
   109    0.000    4.668  300   4.578   2.000   0.000   0.000  90.000   2.000
   110    0.000    4.687  300   4.472   2.000   0.000   0.000  90.000   2.000
   111    0.000    4.707  300   4.366   2.000   0.000   0.000  90.000   2.000
   112    0.000    4.726  300   4.261   2.000   0.000   0.000  90.000   2.000
   113    0.000    4.745  300   4.156   2.000   0.000   0.000  90.000   2.000
   114    0.000    4.764  300   4.053   2.000   0.000   0.000  90.000   2.000
   115    0.000    4.783  300   3.951   2.000   0.000   0.000  90.000   2.000
   116    0.000    4.802  300   3.849   2.000   0.000   0.000  90.000   2.000
   117    0.000    4.822  300   3.748   2.000   0.000   0.000  90.000   2.000
   118    0.000    4.841  300   3.648   2.000   0.000   0.000  90.000   2.000
   119    0.000    4.860  300   3.549   2.000   0.000   0.000  90.000   2.000
   120    0.000    4.879  300   3.450   2.000   0.000   0.000  90.000   2.000
   121    0.000    4.519  300   5.466   2.000   0.000   0.000  33.000   2.000
   122    0.000    4.538  300   5.344   2.000   0.000   0.000  33.000   2.000
   123    0.000    4.556  300   5.222   2.000   0.000   0.000  33.000   2.000
   124    0.000    4.575  300   5.102   2.000   0.000   0.000  33.000   2.000
   125    0.000    4.594  300   4.983   2.000   0.000   0.000  33.000   2.000
   126    0.000    4.613  300   4.864   2.000   0.000   0.000  33.000   2.000
   127    0.000    4.631  300   4.747   2.000   0.000   0.000  33.000   2.000
   128    0.000    4.650  300   4.631   2.000   0.000   0.000  33.000   2.000
   129    0.000    4.669  300   4.515   2.000   0.000   0.000  33.000   2.000
   130    0.000    4.688  300   4.400   2.000   0.000   0.000  33.000   2.000
   131    0.000    4.706  300   4.287   2.000   0.000   0.000  33.000   2.000
   132    0.000    4.725  300   4.174   2.000   0.000   0.000  33.000   2.000
   133    0.000    4.744  300   4.062   2.000   0.000   0.000  33.000   2.000
   134    0.000    4.763  300   3.951   2.000   0.000   0.000  33.000   2.000
   135    0.000    4.782  300   3.841   2.000   0.000   0.000  33.000   2.000
   136    0.000    4.801  300   3.732   2.000   0.000   0.000  33.000   2.000
   137    0.000    4.820  300   3.623   2.000   0.000   0.000  33.000   2.000
   138    0.000    4.839  300   3.516   2.000   0.000   0.000  33.000   2.000
   139    0.000    4.858  300   3.409   2.000   0.000   0.000  33.000   2.000
   140    0.000    4.877  300   3.303   2.000   0.000   0.000  33.000   2.000
   201    0.000    4.059  300   7.878   2.000   0.000   0.000 136.000   2.000
   202    0.000    4.078  300   7.750   2.000   0.000   0.000 136.000   2.000
   203    0.000    4.096  300   7.622   2.000   0.000   0.000 136.000   2.000
   204    0.000    4.115  300   7.496   2.000   0.000   0.000 136.000   2.000
   205    0.000    4.134  300   7.370   2.000   0.000   0.000 136.000   2.000
   206    0.000    4.153  300   7.246   2.000   0.000   0.000 136.000   2.000
   207    0.000    4.172  300   7.123   2.000   0.000   0.000 136.000   2.000
   208    0.000    4.191  300   7.001   2.000   0.000   0.000 136.000   2.000
   209    0.000    4.210  300   6.880   2.000   0.000   0.000 136.000   2.000
   210    0.000    4.229  300   6.761   2.000   0.000   0.000 136.000   2.000
   211    0.000    4.249  300   6.642   2.000   0.000   0.000 136.000   2.000
   212    0.000    4.268  300   6.525   2.000   0.000   0.000 136.000   2.000
   213    0.000    4.287  300   6.408   2.000   0.000   0.000 136.000   2.000
   214    0.000    4.306  300   6.293   2.000   0.000   0.000 136.000   2.000
   215    0.000    4.325  300   6.178   2.000   0.000   0.000 136.000   2.000
   216    0.000    4.344  300   6.065   2.000   0.000   0.000 136.000   2.000
   217    0.000    4.363  300   5.952   2.000   0.000   0.000 136.000   2.000
   218    0.000    4.383  300   5.841   2.000   0.000   0.000 136.000   2.000
   219    0.000    4.402  300   5.730   2.000   0.000   0.000 136.000   2.000
   220    0.000    4.421  300   5.621   2.000   0.000   0.000 136.000   2.000
   221    0.000    4.062  300   7.950   2.000   0.000   0.000 192.000   2.000
   222    0.000    4.080  300   7.812   2.000   0.000   0.000 192.000   2.000
   223    0.000    4.099  300   7.675   2.000   0.000   0.000 192.000   2.000
   224    0.000    4.117  300   7.539   2.000   0.000   0.000 192.000   2.000
   225    0.000    4.136  300   7.405   2.000   0.000   0.000 192.000   2.000
   226    0.000    4.155  300   7.272   2.000   0.000   0.000 192.000   2.000
   227    0.000    4.173  300   7.139   2.000   0.000   0.000 192.000   2.000
   228    0.000    4.192  300   7.008   2.000   0.000   0.000 192.000   2.000
   229    0.000    4.211  300   6.879   2.000   0.000   0.000 192.000   2.000
   230    0.000    4.230  300   6.750   2.000   0.000   0.000 192.000   2.000
   231    0.000    4.248  300   6.623   2.000   0.000   0.000 192.000   2.000
   232    0.000    4.267  300   6.496   2.000   0.000   0.000 192.000   2.000
   233    0.000    4.286  300   6.371   2.000   0.000   0.000 192.000   2.000
   234    0.000    4.305  300   6.247   2.000   0.000   0.000 192.000   2.000
   235    0.000    4.324  300   6.124   2.000   0.000   0.000 192.000   2.000
   236    0.000    4.343  300   6.002   2.000   0.000   0.000 192.000   2.000
   237    0.000    4.361  300   5.881   2.000   0.000   0.000 192.000   2.000
   238    0.000    4.380  300   5.761   2.000   0.000   0.000 192.000   2.000
   239    0.000    4.399  300   5.642   2.000   0.000   0.000 192.000   2.000
   240    0.000    4.418  300   5.524   2.000   0.000   0.000 192.000   2.000
   241    0.000    4.062  300   7.884   2.000   0.000   0.000 168.000   2.000
   242    0.000    4.080  300   7.746   2.000   0.000   0.000 168.000   2.000
   243    0.000    4.099  300   7.610   2.000   0.000   0.000 168.000   2.000
   244    0.000    4.117  300   7.474   2.000   0.000   0.000 168.000   2.000
   245    0.000    4.136  300   7.340   2.000   0.000   0.000 168.000   2.000
   246    0.000    4.155  300   7.207   2.000   0.000   0.000 168.000   2.000
   247    0.000    4.173  300   7.075   2.000   0.000   0.000 168.000   2.000
   248    0.000    4.192  300   6.945   2.000   0.000   0.000 168.000   2.000
   249    0.000    4.211  300   6.815   2.000   0.000   0.000 168.000   2.000
   250    0.000    4.230  300   6.687   2.000   0.000   0.000 168.000   2.000
   251    0.000    4.248  300   6.560   2.000   0.000   0.000 168.000   2.000
   252    0.000    4.267  300   6.433   2.000   0.000   0.000 168.000   2.000
   253    0.000    4.286  300   6.309   2.000   0.000   0.000 168.000   2.000
   254    0.000    4.305  300   6.185   2.000   0.000   0.000 168.000   2.000
   255    0.000    4.324  300   6.062   2.000   0.000   0.000 168.000   2.000
   256    0.000    4.343  300   5.940   2.000   0.000   0.000 168.000   2.000
   257    0.000    4.361  300   5.819   2.000   0.000   0.000 168.000   2.000
   258    0.000    4.380  300   5.700   2.000   0.000   0.000 168.000   2.000
   259    0.000    4.399  300   5.581   2.000   0.000   0.000 168.000   2.000
   260    0.000    4.418  300   5.464   2.000   0.000   0.000 168.000   2.000
   261    0.000    4.062  300   7.930   2.000   0.000   0.000 134.000   2.000
   262    0.000    4.080  300   7.792   2.000   0.000   0.000 134.000   2.000
   263    0.000    4.099  300   7.655   2.000   0.000   0.000 134.000   2.000
   264    0.000    4.117  300   7.519   2.000   0.000   0.000 134.000   2.000
   265    0.000    4.136  300   7.385   2.000   0.000   0.000 134.000   2.000
   266    0.000    4.155  300   7.252   2.000   0.000   0.000 134.000   2.000
   267    0.000    4.173  300   7.120   2.000   0.000   0.000 134.000   2.000
   268    0.000    4.192  300   6.989   2.000   0.000   0.000 134.000   2.000
   269    0.000    4.211  300   6.859   2.000   0.000   0.000 134.000   2.000
   270    0.000    4.230  300   6.731   2.000   0.000   0.000 134.000   2.000
   271    0.000    4.248  300   6.603   2.000   0.000   0.000 134.000   2.000
   272    0.000    4.267  300   6.477   2.000   0.000   0.000 134.000   2.000
   273    0.000    4.286  300   6.352   2.000   0.000   0.000 134.000   2.000
   274    0.000    4.305  300   6.228   2.000   0.000   0.000 134.000   2.000
   275    0.000    4.324  300   6.105   2.000   0.000   0.000 134.000   2.000
   276    0.000    4.343  300   5.983   2.000   0.000   0.000 134.000   2.000
   277    0.000    4.361  300   5.862   2.000   0.000   0.000 134.000   2.000
   278    0.000    4.380  300   5.742   2.000   0.000   0.000 134.000   2.000
   279    0.000    4.399  300   5.623   2.000   0.000   0.000 134.000   2.000
   280    0.000    4.418  300   5.505   2.000   0.000   0.000 134.000   2.000
   301    0.000    3.591  300  10.555   2.000   0.000   0.000 226.000   2.000
   302    0.000    3.610  300  10.411   2.000   0.000   0.000 226.000   2.000
   303    0.000    3.629  300  10.269   2.000   0.000   0.000 226.000   2.000
   304    0.000    3.648  300  10.128   2.000   0.000   0.000 226.000   2.000
   305    0.000    3.667  300   9.989   2.000   0.000   0.000 226.000   2.000
   306    0.000    3.686  300   9.851   2.000   0.000   0.000 226.000   2.000
   307    0.000    3.705  300   9.714   2.000   0.000   0.000 226.000   2.000
   308    0.000    3.724  300   9.579   2.000   0.000   0.000 226.000   2.000
   309    0.000    3.743  300   9.445   2.000   0.000   0.000 226.000   2.000
   310    0.000    3.762  300   9.313   2.000   0.000   0.000 226.000   2.000
   311    0.000    3.782  300   9.182   2.000   0.000   0.000 226.000   2.000
   312    0.000    3.801  300   9.052   2.000   0.000   0.000 226.000   2.000
   313    0.000    3.820  300   8.924   2.000   0.000   0.000 226.000   2.000
   314    0.000    3.839  300   8.797   2.000   0.000   0.000 226.000   2.000
   315    0.000    3.858  300   8.671   2.000   0.000   0.000 226.000   2.000
   316    0.000    3.878  300   8.546   2.000   0.000   0.000 226.000   2.000
   317    0.000    3.897  300   8.423   2.000   0.000   0.000 226.000   2.000
   318    0.000    3.916  300   8.301   2.000   0.000   0.000 226.000   2.000
   319    0.000    3.935  300   8.180   2.000   0.000   0.000 226.000   2.000
   320    0.000    3.955  300   8.060   2.000   0.000   0.000 226.000   2.000
   321    0.000    3.594  300  10.670   2.000   0.000   0.000 102.000   2.000
   322    0.000    3.613  300  10.516   2.000   0.000   0.000 102.000   2.000
   323    0.000    3.631  300  10.363   2.000   0.000   0.000 102.000   2.000
   324    0.000    3.650  300  10.211   2.000   0.000   0.000 102.000   2.000
   325    0.000    3.669  300  10.061   2.000   0.000   0.000 102.000   2.000
   326    0.000    3.687  300   9.913   2.000   0.000   0.000 102.000   2.000
   327    0.000    3.706  300   9.766   2.000   0.000   0.000 102.000   2.000
   328    0.000    3.725  300   9.620   2.000   0.000   0.000 102.000   2.000
   329    0.000    3.744  300   9.476   2.000   0.000   0.000 102.000   2.000
   330    0.000    3.763  300   9.334   2.000   0.000   0.000 102.000   2.000
   331    0.000    3.781  300   9.193   2.000   0.000   0.000 102.000   2.000
   332    0.000    3.800  300   9.053   2.000   0.000   0.000 102.000   2.000
   333    0.000    3.819  300   8.915   2.000   0.000   0.000 102.000   2.000
   334    0.000    3.838  300   8.778   2.000   0.000   0.000 102.000   2.000
   335    0.000    3.857  300   8.642   2.000   0.000   0.000 102.000   2.000
   336    0.000    3.876  300   8.508   2.000   0.000   0.000 102.000   2.000
   337    0.000    3.895  300   8.375   2.000   0.000   0.000 102.000   2.000
   338    0.000    3.914  300   8.243   2.000   0.000   0.000 102.000   2.000
   339    0.000    3.933  300   8.112   2.000   0.000   0.000 102.000   2.000
   340    0.000    3.952  300   7.983   2.000   0.000   0.000 102.000   2.000
   341    0.000    3.593  300  10.604   2.000   0.000   0.000  78.000   2.000
   342    0.000    3.611  300  10.454   2.000   0.000   0.000  78.000   2.000
   343    0.000    3.630  300  10.307   2.000   0.000   0.000  78.000   2.000
   344    0.000    3.649  300  10.161   2.000   0.000   0.000  78.000   2.000
   345    0.000    3.668  300  10.016   2.000   0.000   0.000  78.000   2.000
   346    0.000    3.687  300   9.873   2.000   0.000   0.000  78.000   2.000
   347    0.000    3.706  300   9.731   2.000   0.000   0.000  78.000   2.000
   348    0.000    3.725  300   9.591   2.000   0.000   0.000  78.000   2.000
   349    0.000    3.744  300   9.452   2.000   0.000   0.000  78.000   2.000
   350    0.000    3.763  300   9.315   2.000   0.000   0.000  78.000   2.000
   351    0.000    3.782  300   9.179   2.000   0.000   0.000  78.000   2.000
   352    0.000    3.801  300   9.044   2.000   0.000   0.000  78.000   2.000
   353    0.000    3.820  300   8.911   2.000   0.000   0.000  78.000   2.000
   354    0.000    3.839  300   8.779   2.000   0.000   0.000  78.000   2.000
   355    0.000    3.858  300   8.648   2.000   0.000   0.000  78.000   2.000
   356    0.000    3.877  300   8.518   2.000   0.000   0.000  78.000   2.000
   357    0.000    3.896  300   8.390   2.000   0.000   0.000  78.000   2.000
   358    0.000    3.915  300   8.263   2.000   0.000   0.000  78.000   2.000
   359    0.000    3.934  300   8.138   2.000   0.000   0.000  78.000   2.000
   360    0.000    3.953  300   8.013   2.000   0.000   0.000  78.000   2.000
   361    0.000    3.594  300  10.681   2.000   0.000   0.000  44.000   2.000
   362    0.000    3.613  300  10.526   2.000   0.000   0.000  44.000   2.000
   363    0.000    3.631  300  10.373   2.000   0.000   0.000  44.000   2.000
   364    0.000    3.650  300  10.221   2.000   0.000   0.000  44.000   2.000
   365    0.000    3.669  300  10.071   2.000   0.000   0.000  44.000   2.000
   366    0.000    3.688  300   9.923   2.000   0.000   0.000  44.000   2.000
   367    0.000    3.706  300   9.776   2.000   0.000   0.000  44.000   2.000
   368    0.000    3.725  300   9.630   2.000   0.000   0.000  44.000   2.000
   369    0.000    3.744  300   9.486   2.000   0.000   0.000  44.000   2.000
   370    0.000    3.763  300   9.344   2.000   0.000   0.000  44.000   2.000
   371    0.000    3.781  300   9.202   2.000   0.000   0.000  44.000   2.000
   372    0.000    3.800  300   9.063   2.000   0.000   0.000  44.000   2.000
   373    0.000    3.819  300   8.924   2.000   0.000   0.000  44.000   2.000
   374    0.000    3.838  300   8.787   2.000   0.000   0.000  44.000   2.000
   375    0.000    3.857  300   8.651   2.000   0.000   0.000  44.000   2.000
   376    0.000    3.876  300   8.517   2.000   0.000   0.000  44.000   2.000
   377    0.000    3.895  300   8.384   2.000   0.000   0.000  44.000   2.000
   378    0.000    3.914  300   8.252   2.000   0.000   0.000  44.000   2.000
   379    0.000    3.933  300   8.122   2.000   0.000   0.000  44.000   2.000
   380    0.000    3.952  300   7.992   2.000   0.000   0.000  44.000   2.000
   401    0.000    4.010  300  13.609   2.000   0.000   0.000 243.500   2.000
   402    0.000    4.028  300  13.476   2.000   0.000   0.000 243.500   2.000
   403    0.000    4.047  300  13.343   2.000   0.000   0.000 243.500   2.000
   404    0.000    4.066  300  13.212   2.000   0.000   0.000 243.500   2.000
   405    0.000    4.085  300  13.082   2.000   0.000   0.000 243.500   2.000
   406    0.000    4.104  300  12.953   2.000   0.000   0.000 243.500   2.000
   407    0.000    4.123  300  12.825   2.000   0.000   0.000 243.500   2.000
   408    0.000    4.142  300  12.699   2.000   0.000   0.000 243.500   2.000
   409    0.000    4.161  300  12.573   2.000   0.000   0.000 243.500   2.000
   410    0.000    4.180  300  12.449   2.000   0.000   0.000 243.500   2.000
   411    0.000    4.198  300  12.326   2.000   0.000   0.000 243.500   2.000
   412    0.000    4.217  300  12.204   2.000   0.000   0.000 243.500   2.000
   413    0.000    4.236  300  12.083   2.000   0.000   0.000 243.500   2.000
   414    0.000    4.256  300  11.963   2.000   0.000   0.000 243.500   2.000
   415    0.000    4.275  300  11.844   2.000   0.000   0.000 243.500   2.000
   416    0.000    4.294  300  11.726   2.000   0.000   0.000 243.500   2.000
   417    0.000    4.313  300  11.610   2.000   0.000   0.000 243.500   2.000
   418    0.000    4.332  300  11.494   2.000   0.000   0.000 243.500   2.000
   419    0.000    4.351  300  11.379   2.000   0.000   0.000 243.500   2.000
   420    0.000    4.370  300  11.266   2.000   0.000   0.000 243.500   2.000
   421    0.000    4.013  300  13.700   2.000   0.000   0.000 261.500   2.000
   422    0.000    4.031  300  13.556   2.000   0.000   0.000 261.500   2.000
   423    0.000    4.050  300  13.414   2.000   0.000   0.000 261.500   2.000
   424    0.000    4.068  300  13.273   2.000   0.000   0.000 261.500   2.000
   425    0.000    4.087  300  13.134   2.000   0.000   0.000 261.500   2.000
   426    0.000    4.105  300  12.996   2.000   0.000   0.000 261.500   2.000
   427    0.000    4.124  300  12.859   2.000   0.000   0.000 261.500   2.000
   428    0.000    4.142  300  12.723   2.000   0.000   0.000 261.500   2.000
   429    0.000    4.161  300  12.589   2.000   0.000   0.000 261.500   2.000
   430    0.000    4.180  300  12.455   2.000   0.000   0.000 261.500   2.000
   431    0.000    4.198  300  12.323   2.000   0.000   0.000 261.500   2.000
   432    0.000    4.217  300  12.192   2.000   0.000   0.000 261.500   2.000
   433    0.000    4.236  300  12.062   2.000   0.000   0.000 261.500   2.000
   434    0.000    4.254  300  11.934   2.000   0.000   0.000 261.500   2.000
   435    0.000    4.273  300  11.806   2.000   0.000   0.000 261.500   2.000
   436    0.000    4.292  300  11.680   2.000   0.000   0.000 261.500   2.000
   437    0.000    4.311  300  11.554   2.000   0.000   0.000 261.500   2.000
   438    0.000    4.329  300  11.430   2.000   0.000   0.000 261.500   2.000
   439    0.000    4.348  300  11.307   2.000   0.000   0.000 261.500   2.000
   440    0.000    4.367  300  11.185   2.000   0.000   0.000 261.500   2.000
   441    0.000    4.010  300  13.697   2.000   0.000   0.000 -81.500   2.000
   442    0.000    4.029  300  13.563   2.000   0.000   0.000 -81.500   2.000
   443    0.000    4.047  300  13.430   2.000   0.000   0.000 -81.500   2.000
   444    0.000    4.066  300  13.298   2.000   0.000   0.000 -81.500   2.000
   445    0.000    4.085  300  13.168   2.000   0.000   0.000 -81.500   2.000
   446    0.000    4.104  300  13.038   2.000   0.000   0.000 -81.500   2.000
   447    0.000    4.123  300  12.910   2.000   0.000   0.000 -81.500   2.000
   448    0.000    4.142  300  12.783   2.000   0.000   0.000 -81.500   2.000
   449    0.000    4.161  300  12.658   2.000   0.000   0.000 -81.500   2.000
   450    0.000    4.180  300  12.533   2.000   0.000   0.000 -81.500   2.000
   451    0.000    4.198  300  12.409   2.000   0.000   0.000 -81.500   2.000
   452    0.000    4.217  300  12.287   2.000   0.000   0.000 -81.500   2.000
   453    0.000    4.236  300  12.166   2.000   0.000   0.000 -81.500   2.000
   454    0.000    4.255  300  12.045   2.000   0.000   0.000 -81.500   2.000
   455    0.000    4.275  300  11.926   2.000   0.000   0.000 -81.500   2.000
   456    0.000    4.294  300  11.808   2.000   0.000   0.000 -81.500   2.000
   457    0.000    4.313  300  11.691   2.000   0.000   0.000 -81.500   2.000
   458    0.000    4.332  300  11.575   2.000   0.000   0.000 -81.500   2.000
   459    0.000    4.351  300  11.460   2.000   0.000   0.000 -81.500   2.000
   460    0.000    4.370  300  11.346   2.000   0.000   0.000 -81.500   2.000
   461    0.000    4.012  300  13.838   2.000   0.000   0.000 -63.500   2.000
   462    0.000    4.030  300  13.699   2.000   0.000   0.000 -63.500   2.000
   463    0.000    4.049  300  13.561   2.000   0.000   0.000 -63.500   2.000
   464    0.000    4.067  300  13.424   2.000   0.000   0.000 -63.500   2.000
   465    0.000    4.086  300  13.288   2.000   0.000   0.000 -63.500   2.000
   466    0.000    4.105  300  13.154   2.000   0.000   0.000 -63.500   2.000
   467    0.000    4.123  300  13.021   2.000   0.000   0.000 -63.500   2.000
   468    0.000    4.142  300  12.889   2.000   0.000   0.000 -63.500   2.000
   469    0.000    4.161  300  12.758   2.000   0.000   0.000 -63.500   2.000
   470    0.000    4.180  300  12.628   2.000   0.000   0.000 -63.500   2.000
   471    0.000    4.198  300  12.500   2.000   0.000   0.000 -63.500   2.000
   472    0.000    4.217  300  12.373   2.000   0.000   0.000 -63.500   2.000
   473    0.000    4.236  300  12.247   2.000   0.000   0.000 -63.500   2.000  8.5
   474    0.000    4.255  300  12.121   2.000   0.000   0.000 -63.500   2.000
   475    0.000    4.274  300  11.998   2.000   0.000   0.000 -63.500   2.000
   476    0.000    4.293  300  11.875   2.000   0.000   0.000 -63.500   2.000
   477    0.000    4.312  300  11.753   2.000   0.000   0.000 -63.500   2.000
   478    0.000    4.330  300  11.632   2.000   0.000   0.000 -63.500   2.000
   479    0.000    4.349  300  11.512   2.000   0.000   0.000 -63.500   2.000
   480    0.000    4.368  300  11.394   2.000   0.000   0.000 -63.500   2.000
   501    0.000    3.128  300  16.848   2.000   0.000   0.000 243.500   2.000
   502    0.000    3.147  300  16.669   2.000   0.000   0.000 243.500   2.000
   503    0.000    3.165  300  16.493   2.000   0.000   0.000 243.500   2.000
   504    0.000    3.184  300  16.318   2.000   0.000   0.000 243.500   2.000
   505    0.000    3.203  300  16.146   2.000   0.000   0.000 243.500   2.000
   506    0.000    3.222  300  15.976   2.000   0.000   0.000 243.500   2.000
   507    0.000    3.240  300  15.807   2.000   0.000   0.000 243.500   2.000
   508    0.000    3.259  300  15.641   2.000   0.000   0.000 243.500   2.000
   509    0.000    3.278  300  15.476   2.000   0.000   0.000 243.500   2.000
   510    0.000    3.297  300  15.313   2.000   0.000   0.000 243.500   2.000
   511    0.000    3.315  300  15.152   2.000   0.000   0.000 243.500   2.000
   512    0.000    3.334  300  14.993   2.000   0.000   0.000 243.500   2.000
   513    0.000    3.353  300  14.836   2.000   0.000   0.000 243.500   2.000
   514    0.000    3.372  300  14.681   2.000   0.000   0.000 243.500   2.000
   515    0.000    3.391  300  14.527   2.000   0.000   0.000 243.500   2.000
   516    0.000    3.410  300  14.375   2.000   0.000   0.000 243.500   2.000
   517    0.000    3.429  300  14.224   2.000   0.000   0.000 243.500   2.000
   518    0.000    3.448  300  14.076   2.000   0.000   0.000 243.500   2.000
   519    0.000    3.467  300  13.929   2.000   0.000   0.000 243.500   2.000
   520    0.000    3.486  300  13.783   2.000   0.000   0.000 243.500   2.000
   521    0.000    3.130  300  16.901   2.000   0.000   0.000 261.500   2.000
   522    0.000    3.148  300  16.716   2.000   0.000   0.000 261.500   2.000
   523    0.000    3.167  300  16.534   2.000   0.000   0.000 261.500   2.000
   524    0.000    3.185  300  16.353   2.000   0.000   0.000 261.500   2.000
   525    0.000    3.204  300  16.175   2.000   0.000   0.000 261.500   2.000
   526    0.000    3.222  300  15.998   2.000   0.000   0.000 261.500   2.000
   527    0.000    3.241  300  15.824   2.000   0.000   0.000 261.500   2.000
   528    0.000    3.259  300  15.652   2.000   0.000   0.000 261.500   2.000
   529    0.000    3.278  300  15.482   2.000   0.000   0.000 261.500   2.000
   530    0.000    3.297  300  15.313   2.000   0.000   0.000 261.500   2.000
   531    0.000    3.315  300  15.147   2.000   0.000   0.000 261.500   2.000
   532    0.000    3.334  300  14.982   2.000   0.000   0.000 261.500   2.000
   533    0.000    3.353  300  14.819   2.000   0.000   0.000 261.500   2.000
   534    0.000    3.372  300  14.658   2.000   0.000   0.000 261.500   2.000
   535    0.000    3.390  300  14.499   2.000   0.000   0.000 261.500   2.000
   536    0.000    3.409  300  14.341   2.000   0.000   0.000 261.500   2.000
   537    0.000    3.428  300  14.186   2.000   0.000   0.000 261.500   2.000
   538    0.000    3.447  300  14.032   2.000   0.000   0.000 261.500   2.000
   539    0.000    3.466  300  13.879   2.000   0.000   0.000 261.500   2.000
   540    0.000    3.485  300  13.729   2.000   0.000   0.000 261.500   2.000
   541    0.000    3.129  300  17.285   2.000   0.000   0.000 -81.500   2.000
   542    0.000    3.147  300  17.104   2.000   0.000   0.000 -81.500   2.000
   543    0.000    3.166  300  16.925   2.000   0.000   0.000 -81.500   2.000
   544    0.000    3.185  300  16.748   2.000   0.000   0.000 -81.500   2.000
   545    0.000    3.203  300  16.573   2.000   0.000   0.000 -81.500   2.000
   546    0.000    3.222  300  16.400   2.000   0.000   0.000 -81.500   2.000
   547    0.000    3.240  300  16.229   2.000   0.000   0.000 -81.500   2.000
   548    0.000    3.259  300  16.060   2.000   0.000   0.000 -81.500   2.000
   549    0.000    3.278  300  15.893   2.000   0.000   0.000 -81.500   2.000
   550    0.000    3.297  300  15.728   2.000   0.000   0.000 -81.500   2.000
   551    0.000    3.315  300  15.565   2.000   0.000   0.000 -81.500   2.000
   552    0.000    3.334  300  15.404   2.000   0.000   0.000 -81.500   2.000
   553    0.000    3.353  300  15.244   2.000   0.000   0.000 -81.500   2.000
   554    0.000    3.372  300  15.086   2.000   0.000   0.000 -81.500   2.000
   555    0.000    3.391  300  14.930   2.000   0.000   0.000 -81.500   2.000
   556    0.000    3.410  300  14.776   2.000   0.000   0.000 -81.500   2.000
   557    0.000    3.429  300  14.623   2.000   0.000   0.000 -81.500   2.000
   558    0.000    3.447  300  14.472   2.000   0.000   0.000 -81.500   2.000
   559    0.000    3.466  300  14.323   2.000   0.000   0.000 -81.500   2.000
   560    0.000    3.485  300  14.176   2.000   0.000   0.000 -81.500   2.000
   561    0.000    3.127  300  17.100   2.000   0.000   0.000 -63.500   2.000
   562    0.000    3.146  300  16.926   2.000   0.000   0.000 -63.500   2.000
   563    0.000    3.165  300  16.754   2.000   0.000   0.000 -63.500   2.000
   564    0.000    3.183  300  16.584   2.000   0.000   0.000 -63.500   2.000
   565    0.000    3.202  300  16.416   2.000   0.000   0.000 -63.500   2.000
   566    0.000    3.221  300  16.250   2.000   0.000   0.000 -63.500   2.000
   567    0.000    3.240  300  16.085   2.000   0.000   0.000 -63.500   2.000
   568    0.000    3.259  300  15.923   2.000   0.000   0.000 -63.500   2.000
   569    0.000    3.278  300  15.762   2.000   0.000   0.000 -63.500   2.000
   570    0.000    3.297  300  15.604   2.000   0.000   0.000 -63.500   2.000
   571    0.000    3.315  300  15.447   2.000   0.000   0.000 -63.500   2.000
   572    0.000    3.334  300  15.292   2.000   0.000   0.000 -63.500   2.000
   573    0.000    3.353  300  15.139   2.000   0.000   0.000 -63.500   2.000
   574    0.000    3.372  300  14.987   2.000   0.000   0.000 -63.500   2.000
   575    0.000    3.392  300  14.837   2.000   0.000   0.000 -63.500   2.000
   576    0.000    3.411  300  14.689   2.000   0.000   0.000 -63.500   2.000
   577    0.000    3.430  300  14.543   2.000   0.000   0.000 -63.500   2.000
   578    0.000    3.449  300  14.398   2.000   0.000   0.000 -63.500   2.000
   579    0.000    3.468  300  14.254   2.000   0.000   0.000 -63.500   2.000
   580    0.000    3.487  300  14.113   2.000   0.000   0.000 -63.500   2.000
   601    0.000    2.426  300  20.921   2.000   0.000   0.000 243.500   2.000
   602    0.000    2.445  300  20.690   2.000   0.000   0.000 243.500   2.000
   603    0.000    2.463  300  20.463   2.000   0.000   0.000 243.500   2.000
   604    0.000    2.482  300  20.240   2.000   0.000   0.000 243.500   2.000
   605    0.000    2.501  300  20.019   2.000   0.000   0.000 243.500   2.000
   606    0.000    2.519  300  19.802   2.000   0.000   0.000 243.500   2.000
   607    0.000    2.538  300  19.589   2.000   0.000   0.000 243.500   2.000
   608    0.000    2.557  300  19.378   2.000   0.000   0.000 243.500   2.000
   609    0.000    2.576  300  19.170   2.000   0.000   0.000 243.500   2.000
   610    0.000    2.595  300  18.966   2.000   0.000   0.000 243.500   2.000
   611    0.000    2.613  300  18.764   2.000   0.000   0.000 243.500   2.000
   612    0.000    2.632  300  18.566   2.000   0.000   0.000 243.500   2.000
   613    0.000    2.651  300  18.370   2.000   0.000   0.000 243.500   2.000
   614    0.000    2.670  300  18.177   2.000   0.000   0.000 243.500   2.000
   615    0.000    2.689  300  17.986   2.000   0.000   0.000 243.500   2.000
   616    0.000    2.708  300  17.799   2.000   0.000   0.000 243.500   2.000
   617    0.000    2.727  300  17.614   2.000   0.000   0.000 243.500   2.000
   618    0.000    2.747  300  17.431   2.000   0.000   0.000 243.500   2.000
   619    0.000    2.766  300  17.251   2.000   0.000   0.000 243.500   2.000
   620    0.000    2.785  300  17.074   2.000   0.000   0.000 243.500   2.000
   621    0.000    2.426  300  20.871   2.000   0.000   0.000 261.500   2.000
   622    0.000    2.445  300  20.641   2.000   0.000   0.000 261.500   2.000
   623    0.000    2.463  300  20.414   2.000   0.000   0.000 261.500   2.000
   624    0.000    2.482  300  20.191   2.000   0.000   0.000 261.500   2.000
   625    0.000    2.501  300  19.971   2.000   0.000   0.000 261.500   2.000
   626    0.000    2.519  300  19.754   2.000   0.000   0.000 261.500   2.000
   627    0.000    2.538  300  19.541   2.000   0.000   0.000 261.500   2.000
   628    0.000    2.557  300  19.331   2.000   0.000   0.000 261.500   2.000
   629    0.000    2.576  300  19.124   2.000   0.000   0.000 261.500   2.000
   630    0.000    2.595  300  18.919   2.000   0.000   0.000 261.500   2.000
   631    0.000    2.613  300  18.718   2.000   0.000   0.000 261.500   2.000
   632    0.000    2.632  300  18.520   2.000   0.000   0.000 261.500   2.000
   633    0.000    2.651  300  18.324   2.000   0.000   0.000 261.500   2.000
   634    0.000    2.670  300  18.132   2.000   0.000   0.000 261.500   2.000
   635    0.000    2.689  300  17.942   2.000   0.000   0.000 261.500   2.000
   636    0.000    2.708  300  17.754   2.000   0.000   0.000 261.500   2.000
   637    0.000    2.728  300  17.569   2.000   0.000   0.000 261.500   2.000
   638    0.000    2.747  300  17.387   2.000   0.000   0.000 261.500   2.000
   639    0.000    2.766  300  17.208   2.000   0.000   0.000 261.500   2.000
   640    0.000    2.785  300  17.031   2.000   0.000   0.000 261.500   2.000
   641    0.000    2.427  300  21.562   2.000   0.000   0.000 -81.500   2.000
   642    0.000    2.445  300  21.327   2.000   0.000   0.000 -81.500   2.000
   643    0.000    2.464  300  21.095   2.000   0.000   0.000 -81.500   2.000
   644    0.000    2.483  300  20.867   2.000   0.000   0.000 -81.500   2.000
   645    0.000    2.501  300  20.642   2.000   0.000   0.000 -81.500   2.000
   646    0.000    2.520  300  20.420   2.000   0.000   0.000 -81.500   2.000
   647    0.000    2.538  300  20.202   2.000   0.000   0.000 -81.500   2.000
   648    0.000    2.557  300  19.987   2.000   0.000   0.000 -81.500   2.000
   649    0.000    2.576  300  19.775   2.000   0.000   0.000 -81.500   2.000
   650    0.000    2.595  300  19.566   2.000   0.000   0.000 -81.500   2.000
   651    0.000    2.613  300  19.360   2.000   0.000   0.000 -81.500   2.000
   652    0.000    2.632  300  19.157   2.000   0.000   0.000 -81.500   2.000
   653    0.000    2.651  300  18.957   2.000   0.000   0.000 -81.500   2.000
   654    0.000    2.670  300  18.760   2.000   0.000   0.000 -81.500   2.000
   655    0.000    2.689  300  18.565   2.000   0.000   0.000 -81.500   2.000
   656    0.000    2.708  300  18.374   2.000   0.000   0.000 -81.500   2.000
   657    0.000    2.727  300  18.185   2.000   0.000   0.000 -81.500   2.000
   658    0.000    2.746  300  17.998   2.000   0.000   0.000 -81.500   2.000
   659    0.000    2.765  300  17.814   2.000   0.000   0.000 -81.500   2.000
   660    0.000    2.784  300  17.633   2.000   0.000   0.000 -81.500   2.000
   661    0.000    2.427  300  21.449   2.000   0.000   0.000 -63.500   2.000
   662    0.000    2.445  300  21.215   2.000   0.000   0.000 -63.500   2.000
   663    0.000    2.464  300  20.984   2.000   0.000   0.000 -63.500   2.000
   664    0.000    2.482  300  20.756   2.000   0.000   0.000 -63.500   2.000
   665    0.000    2.501  300  20.532   2.000   0.000   0.000 -63.500   2.000
   666    0.000    2.520  300  20.312   2.000   0.000   0.000 -63.500   2.000
   667    0.000    2.538  300  20.094   2.000   0.000   0.000 -63.500   2.000
   668    0.000    2.557  300  19.880   2.000   0.000   0.000 -63.500   2.000
   669    0.000    2.576  300  19.669   2.000   0.000   0.000 -63.500   2.000
   670    0.000    2.595  300  19.460   2.000   0.000   0.000 -63.500   2.000
   671    0.000    2.613  300  19.255   2.000   0.000   0.000 -63.500   2.000
   672    0.000    2.632  300  19.053   2.000   0.000   0.000 -63.500   2.000
   673    0.000    2.651  300  18.854   2.000   0.000   0.000 -63.500   2.000
   674    0.000    2.670  300  18.657   2.000   0.000   0.000 -63.500   2.000
   675    0.000    2.689  300  18.464   2.000   0.000   0.000 -63.500   2.000
   676    0.000    2.708  300  18.272   2.000   0.000   0.000 -63.500   2.000
   677    0.000    2.727  300  18.084   2.000   0.000   0.000 -63.500   2.000
   678    0.000    2.746  300  17.898   2.000   0.000   0.000 -63.500   2.000
   679    0.000    2.765  300  17.715   2.000   0.000   0.000 -63.500   2.000
   680    0.000    2.784  300  17.534   2.000   0.000   0.000 -63.500   2.000
   701    0.000    1.951  300  25.861   2.000   0.000   0.000 114.500   2.000
   702    0.000    1.969  300  25.548   2.000   0.000   0.000 114.500   2.000
   703    0.000    1.987  300  25.240   2.000   0.000   0.000 114.500   2.000
   704    0.000    2.005  300  24.938   2.000   0.000   0.000 114.500   2.000
   705    0.000    2.023  300  24.641   2.000   0.000   0.000 114.500   2.000
   706    0.000    2.041  300  24.349   2.000   0.000   0.000 114.500   2.000
   707    0.000    2.060  300  24.063   2.000   0.000   0.000 114.500   2.000
   708    0.000    2.078  300  23.782   2.000   0.000   0.000 114.500   2.000
   709    0.000    2.097  300  23.506   2.000   0.000   0.000 114.500   2.000
   710    0.000    2.115  300  23.234   2.000   0.000   0.000 114.500   2.000
   711    0.000    2.134  300  22.967   2.000   0.000   0.000 114.500   2.000
   712    0.000    2.152  300  22.705   2.000   0.000   0.000 114.500   2.000
   713    0.000    2.171  300  22.447   2.000   0.000   0.000 114.500   2.000
   714    0.000    2.189  300  22.194   2.000   0.000   0.000 114.500   2.000
   715    0.000    2.208  300  21.945   2.000   0.000   0.000 114.500   2.000
   716    0.000    2.227  300  21.700   2.000   0.000   0.000 114.500   2.000
   717    0.000    2.246  300  21.459   2.000   0.000   0.000 114.500   2.000
   718    0.000    2.264  300  21.223   2.000   0.000   0.000 114.500   2.000
   719    0.000    2.283  300  20.990   2.000   0.000   0.000 114.500   2.000
   720    0.000    2.302  300  20.761   2.000   0.000   0.000 114.500   2.000
   721    0.000    1.951  300  26.216   2.000   0.000   0.000  97.000   2.000
   722    0.000    1.969  300  25.899   2.000   0.000   0.000  97.000   2.000
   723    0.000    1.987  300  25.588   2.000   0.000   0.000  97.000   2.000
   724    0.000    2.005  300  25.283   2.000   0.000   0.000  97.000   2.000
   725    0.000    2.023  300  24.983   2.000   0.000   0.000  97.000   2.000
   726    0.000    2.042  300  24.689   2.000   0.000   0.000  97.000   2.000
   727    0.000    2.060  300  24.399   2.000   0.000   0.000  97.000   2.000
   728    0.000    2.078  300  24.115   2.000   0.000   0.000  97.000   2.000
   729    0.000    2.097  300  23.836   2.000   0.000   0.000  97.000   2.000
   730    0.000    2.115  300  23.561   2.000   0.000   0.000  97.000   2.000
   731    0.000    2.134  300  23.292   2.000   0.000   0.000  97.000   2.000
   732    0.000    2.152  300  23.027   2.000   0.000   0.000  97.000   2.000
   733    0.000    2.171  300  22.766   2.000   0.000   0.000  97.000   2.000
   734    0.000    2.189  300  22.510   2.000   0.000   0.000  97.000   2.000
   735    0.000    2.208  300  22.259   2.000   0.000   0.000  97.000   2.000
   736    0.000    2.227  300  22.011   2.000   0.000   0.000  97.000   2.000
   737    0.000    2.245  300  21.768   2.000   0.000   0.000  97.000   2.000
   738    0.000    2.264  300  21.528   2.000   0.000   0.000  97.000   2.000
   739    0.000    2.283  300  21.293   2.000   0.000   0.000  97.000   2.000
   740    0.000    2.302  300  21.061   2.000   0.000   0.000  97.000   2.000
   741    0.000    1.951  300  25.943   2.000   0.000   0.000  83.000   2.000
   742    0.000    1.969  300  25.629   2.000   0.000   0.000  83.000   2.000
   743    0.000    1.987  300  25.320   2.000   0.000   0.000  83.000   2.000
   744    0.000    2.005  300  25.017   2.000   0.000   0.000  83.000   2.000
   745    0.000    2.023  300  24.720   2.000   0.000   0.000  83.000   2.000
   746    0.000    2.041  300  24.427   2.000   0.000   0.000  83.000   2.000
   747    0.000    2.060  300  24.140   2.000   0.000   0.000  83.000   2.000
   748    0.000    2.078  300  23.859   2.000   0.000   0.000  83.000   2.000
   749    0.000    2.097  300  23.582   2.000   0.000   0.000  83.000   2.000
   750    0.000    2.115  300  23.309   2.000   0.000   0.000  83.000   2.000
   751    0.000    2.134  300  23.042   2.000   0.000   0.000  83.000   2.000
   752    0.000    2.152  300  22.779   2.000   0.000   0.000  83.000   2.000
   753    0.000    2.171  300  22.521   2.000   0.000   0.000  83.000   2.000
   754    0.000    2.189  300  22.267   2.000   0.000   0.000  83.000   2.000
   755    0.000    2.208  300  22.017   2.000   0.000   0.000  83.000   2.000
   756    0.000    2.227  300  21.772   2.000   0.000   0.000  83.000   2.000
   757    0.000    2.246  300  21.530   2.000   0.000   0.000  83.000   2.000
   758    0.000    2.264  300  21.293   2.000   0.000   0.000  83.000   2.000
   759    0.000    2.283  300  21.060   2.000   0.000   0.000  83.000   2.000
   760    0.000    2.302  300  20.830   2.000   0.000   0.000  83.000   2.000
   761    0.000    1.952  300  26.565   2.000   0.000   0.000  65.500   2.000
   762    0.000    1.970  300  26.246   2.000   0.000   0.000  65.500   2.000
   763    0.000    1.988  300  25.932   2.000   0.000   0.000  65.500   2.000
   764    0.000    2.006  300  25.623   2.000   0.000   0.000  65.500   2.000
   765    0.000    2.024  300  25.320   2.000   0.000   0.000  65.500   2.000
   766    0.000    2.042  300  25.023   2.000   0.000   0.000  65.500   2.000
   767    0.000    2.060  300  24.731   2.000   0.000   0.000  65.500   2.000
   768    0.000    2.078  300  24.444   2.000   0.000   0.000  65.500   2.000
   769    0.000    2.097  300  24.161   2.000   0.000   0.000  65.500   2.000
   770    0.000    2.115  300  23.884   2.000   0.000   0.000  65.500   2.000
   771    0.000    2.134  300  23.612   2.000   0.000   0.000  65.500   2.000
   772    0.000    2.152  300  23.344   2.000   0.000   0.000  65.500   2.000
   773    0.000    2.170  300  23.081   2.000   0.000   0.000  65.500   2.000
   774    0.000    2.189  300  22.822   2.000   0.000   0.000  65.500   2.000
   775    0.000    2.208  300  22.568   2.000   0.000   0.000  65.500   2.000
   776    0.000    2.226  300  22.318   2.000   0.000   0.000  65.500   2.000
   777    0.000    2.245  300  22.072   2.000   0.000   0.000  65.500   2.000
   778    0.000    2.264  300  21.830   2.000   0.000   0.000  65.500   2.000
   779    0.000    2.282  300  21.592   2.000   0.000   0.000  65.500   2.000
   780    0.000    2.301  300  21.358   2.000   0.000   0.000  65.500   2.000
   801    0.000    1.471  300  33.078   2.000   0.000   0.000  97.000   2.000
   802    0.000    1.489  300  32.661   2.000   0.000   0.000  97.000   2.000
   803    0.000    1.507  300  32.254   2.000   0.000   0.000  97.000   2.000
   804    0.000    1.525  300  31.856   2.000   0.000   0.000  97.000   2.000
   805    0.000    1.543  300  31.468   2.000   0.000   0.000  97.000   2.000
   806    0.000    1.562  300  31.089   2.000   0.000   0.000  97.000   2.000
   807    0.000    1.580  300  30.719   2.000   0.000   0.000  97.000   2.000
   808    0.000    1.599  300  30.357   2.000   0.000   0.000  97.000   2.000
   809    0.000    1.617  300  30.004   2.000   0.000   0.000  97.000   2.000
   810    0.000    1.636  300  29.659   2.000   0.000   0.000  97.000   2.000
   811    0.000    1.654  300  29.321   2.000   0.000   0.000  97.000   2.000
   812    0.000    1.673  300  28.991   2.000   0.000   0.000  97.000   2.000
   813    0.000    1.692  300  28.668   2.000   0.000   0.000  97.000   2.000
   814    0.000    1.710  300  28.352   2.000   0.000   0.000  97.000   2.000
   815    0.000    1.729  300  28.043   2.000   0.000   0.000  97.000   2.000
   816    0.000    1.748  300  27.741   2.000   0.000   0.000  97.000   2.000
   817    0.000    1.767  300  27.445   2.000   0.000   0.000  97.000   2.000
   818    0.000    1.786  300  27.156   2.000   0.000   0.000  97.000   2.000
   819    0.000    1.805  300  26.873   2.000   0.000   0.000  97.000   2.000
   820    0.000    1.824  300  26.595   2.000   0.000   0.000  97.000   2.000
   821    0.000    1.471  300  33.415   2.000   0.000   0.000  83.000   2.000
   822    0.000    1.489  300  32.993   2.000   0.000   0.000  83.000   2.000
   823    0.000    1.507  300  32.582   2.000   0.000   0.000  83.000   2.000
   824    0.000    1.525  300  32.181   2.000   0.000   0.000  83.000   2.000
   825    0.000    1.544  300  31.789   2.000   0.000   0.000  83.000   2.000
   826    0.000    1.562  300  31.406   2.000   0.000   0.000  83.000   2.000
   827    0.000    1.580  300  31.033   2.000   0.000   0.000  83.000   2.000
   828    0.000    1.599  300  30.667   2.000   0.000   0.000  83.000   2.000
   829    0.000    1.617  300  30.310   2.000   0.000   0.000  83.000   2.000
   830    0.000    1.636  300  29.962   2.000   0.000   0.000  83.000   2.000
   831    0.000    1.654  300  29.621   2.000   0.000   0.000  83.000   2.000
   832    0.000    1.673  300  29.287   2.000   0.000   0.000  83.000   2.000
   833    0.000    1.692  300  28.961   2.000   0.000   0.000  83.000   2.000
   834    0.000    1.710  300  28.642   2.000   0.000   0.000  83.000   2.000
   835    0.000    1.729  300  28.330   2.000   0.000   0.000  83.000   2.000
   836    0.000    1.748  300  28.025   2.000   0.000   0.000  83.000   2.000
   837    0.000    1.767  300  27.726   2.000   0.000   0.000  83.000   2.000
   838    0.000    1.786  300  27.433   2.000   0.000   0.000  83.000   2.000
   839    0.000    1.805  300  27.147   2.000   0.000   0.000  83.000   2.000
   840    0.000    1.824  300  26.867   2.000   0.000   0.000  83.000   2.000
   841    0.000    1.471  300  33.479   2.000   0.000   0.000  66.500   2.000
   842    0.000    1.489  300  33.057   2.000   0.000   0.000  66.500   2.000
   843    0.000    1.507  300  32.646   2.000   0.000   0.000  66.500   2.000
   844    0.000    1.526  300  32.244   2.000   0.000   0.000  66.500   2.000
   845    0.000    1.544  300  31.851   2.000   0.000   0.000  66.500   2.000
   846    0.000    1.562  300  31.468   2.000   0.000   0.000  66.500   2.000
   847    0.000    1.580  300  31.093   2.000   0.000   0.000  66.500   2.000
   848    0.000    1.599  300  30.727   2.000   0.000   0.000  66.500   2.000
   849    0.000    1.617  300  30.369   2.000   0.000   0.000  66.500   2.000
   850    0.000    1.636  300  30.020   2.000   0.000   0.000  66.500   2.000
   851    0.000    1.654  300  29.678   2.000   0.000   0.000  66.500   2.000
   852    0.000    1.673  300  29.344   2.000   0.000   0.000  66.500   2.000
   853    0.000    1.691  300  29.017   2.000   0.000   0.000  66.500   2.000
   854    0.000    1.710  300  28.698   2.000   0.000   0.000  66.500   2.000
   855    0.000    1.729  300  28.385   2.000   0.000   0.000  66.500   2.000
   856    0.000    1.748  300  28.079   2.000   0.000   0.000  66.500   2.000
   857    0.000    1.767  300  27.780   2.000   0.000   0.000  66.500   2.000
   858    0.000    1.786  300  27.487   2.000   0.000   0.000  66.500   2.000
   859    0.000    1.805  300  27.200   2.000   0.000   0.000  66.500   2.000
   860    0.000    1.824  300  26.919   2.000   0.000   0.000  66.500   2.000
   901    0.000    1.228  300  37.977   2.000   0.000   0.000 243.500   2.000
   902    0.000    1.245  300  37.382   2.000   0.000   0.000 243.500   2.000
   903    0.000    1.262  300  36.803   2.000   0.000   0.000 243.500   2.000
   904    0.000    1.279  300  36.239   2.000   0.000   0.000 243.500   2.000
   905    0.000    1.296  300  35.690   2.000   0.000   0.000 243.500   2.000
   906    0.000    1.313  300  35.155   2.000   0.000   0.000 243.500   2.000
   907    0.000    1.330  300  34.634   2.000   0.000   0.000 243.500   2.000
   908    0.000    1.347  300  34.127   2.000   0.000   0.000 243.500   2.000
   909    0.000    1.365  300  33.632   2.000   0.000   0.000 243.500   2.000
   910    0.000    1.382  300  33.150   2.000   0.000   0.000 243.500   2.000
   911    0.000    1.400  300  32.680   2.000   0.000   0.000 243.500   2.000
   912    0.000    1.418  300  32.222   2.000   0.000   0.000 243.500   2.000
   913    0.000    1.435  300  31.775   2.000   0.000   0.000 243.500   2.000
   914    0.000    1.453  300  31.339   2.000   0.000   0.000 243.500   2.000
   915    0.000    1.471  300  30.913   2.000   0.000   0.000 243.500   2.000
   916    0.000    1.489  300  30.498   2.000   0.000   0.000 243.500   2.000
   917    0.000    1.507  300  30.093   2.000   0.000   0.000 243.500   2.000
   918    0.000    1.526  300  29.698   2.000   0.000   0.000 243.500   2.000
   919    0.000    1.544  300  29.312   2.000   0.000   0.000 243.500   2.000
   920    0.000    1.562  300  28.935   2.000   0.000   0.000 243.500   2.000
   921    0.000    1.228  300  38.007   2.000   0.000   0.000 261.500   2.000
   922    0.000    1.245  300  37.412   2.000   0.000   0.000 261.500   2.000
   923    0.000    1.262  300  36.833   2.000   0.000   0.000 261.500   2.000
   924    0.000    1.279  300  36.269   2.000   0.000   0.000 261.500   2.000
   925    0.000    1.296  300  35.719   2.000   0.000   0.000 261.500   2.000
   926    0.000    1.313  300  35.184   2.000   0.000   0.000 261.500   2.000
   927    0.000    1.330  300  34.663   2.000   0.000   0.000 261.500   2.000
   928    0.000    1.347  300  34.155   2.000   0.000   0.000 261.500   2.000
   929    0.000    1.365  300  33.660   2.000   0.000   0.000 261.500   2.000
   930    0.000    1.382  300  33.177   2.000   0.000   0.000 261.500   2.000
   931    0.000    1.400  300  32.707   2.000   0.000   0.000 261.500   2.000
   932    0.000    1.418  300  32.248   2.000   0.000   0.000 261.500   2.000
   933    0.000    1.435  300  31.801   2.000   0.000   0.000 261.500   2.000
   934    0.000    1.453  300  31.365   2.000   0.000   0.000 261.500   2.000
   935    0.000    1.471  300  30.939   2.000   0.000   0.000 261.500   2.000
   936    0.000    1.489  300  30.524   2.000   0.000   0.000 261.500   2.000
   937    0.000    1.507  300  30.118   2.000   0.000   0.000 261.500   2.000
   938    0.000    1.526  300  29.722   2.000   0.000   0.000 261.500   2.000
   939    0.000    1.544  300  29.336   2.000   0.000   0.000 261.500   2.000
   940    0.000    1.562  300  28.959   2.000   0.000   0.000 261.500   2.000
   941    0.000    1.228  300  37.933   2.000   0.000   0.000 -81.500   2.000
   942    0.000    1.245  300  37.339   2.000   0.000   0.000 -81.500   2.000
   943    0.000    1.262  300  36.761   2.000   0.000   0.000 -81.500   2.000
   944    0.000    1.279  300  36.197   2.000   0.000   0.000 -81.500   2.000
   945    0.000    1.296  300  35.649   2.000   0.000   0.000 -81.500   2.000
   946    0.000    1.313  300  35.115   2.000   0.000   0.000 -81.500   2.000
   947    0.000    1.330  300  34.594   2.000   0.000   0.000 -81.500   2.000
   948    0.000    1.347  300  34.087   2.000   0.000   0.000 -81.500   2.000
   949    0.000    1.365  300  33.593   2.000   0.000   0.000 -81.500   2.000
   950    0.000    1.382  300  33.111   2.000   0.000   0.000 -81.500   2.000
   951    0.000    1.400  300  32.642   2.000   0.000   0.000 -81.500   2.000
   952    0.000    1.418  300  32.184   2.000   0.000   0.000 -81.500   2.000
   953    0.000    1.435  300  31.737   2.000   0.000   0.000 -81.500   2.000
   954    0.000    1.453  300  31.302   2.000   0.000   0.000 -81.500   2.000
   955    0.000    1.471  300  30.877   2.000   0.000   0.000 -81.500   2.000
   956    0.000    1.489  300  30.462   2.000   0.000   0.000 -81.500   2.000
   957    0.000    1.507  300  30.058   2.000   0.000   0.000 -81.500   2.000
   958    0.000    1.526  300  29.663   2.000   0.000   0.000 -81.500   2.000
   959    0.000    1.544  300  29.277   2.000   0.000   0.000 -81.500   2.000
   960    0.000    1.562  300  28.900   2.000   0.000   0.000 -81.500   2.000
   961    0.000    1.228  300  37.833   2.000   0.000   0.000 -63.500   2.000
   962    0.000    1.245  300  37.240   2.000   0.000   0.000 -63.500   2.000
   963    0.000    1.261  300  36.663   2.000   0.000   0.000 -63.500   2.000
   964    0.000    1.278  300  36.101   2.000   0.000   0.000 -63.500   2.000
   965    0.000    1.295  300  35.553   2.000   0.000   0.000 -63.500   2.000
   966    0.000    1.313  300  35.020   2.000   0.000   0.000 -63.500   2.000
   967    0.000    1.330  300  34.501   2.000   0.000   0.000 -63.500   2.000
   968    0.000    1.347  300  33.995   2.000   0.000   0.000 -63.500   2.000
   969    0.000    1.365  300  33.502   2.000   0.000   0.000 -63.500   2.000
   970    0.000    1.382  300  33.022   2.000   0.000   0.000 -63.500   2.000
   971    0.000    1.400  300  32.553   2.000   0.000   0.000 -63.500   2.000
   972    0.000    1.418  300  32.097   2.000   0.000   0.000 -63.500   2.000
   973    0.000    1.435  300  31.651   2.000   0.000   0.000 -63.500   2.000
   974    0.000    1.453  300  31.217   2.000   0.000   0.000 -63.500   2.000
   975    0.000    1.471  300  30.793   2.000   0.000   0.000 -63.500   2.000
   976    0.000    1.489  300  30.379   2.000   0.000   0.000 -63.500   2.000
   977    0.000    1.508  300  29.976   2.000   0.000   0.000 -63.500   2.000
   978    0.000    1.526  300  29.582   2.000   0.000   0.000 -63.500   2.000
   979    0.000    1.544  300  29.197   2.000   0.000   0.000 -63.500   2.000
   980    0.000    1.562  300  28.821   2.000   0.000   0.000 -63.500   2.000
  1001    0.000    1.228  300  37.833   2.000   0.000   0.000 -63.500   2.000
  1002    0.000    1.245  300  37.240   2.000   0.000   0.000 -63.500   2.000
  1003    0.000    1.261  300  36.663   2.000   0.000   0.000 -63.500   2.000
  1004    0.000    1.278  300  36.101   2.000   0.000   0.000 -63.500   2.000
  1005    0.000    1.295  300  35.553   2.000   0.000   0.000 -63.500   2.000
  1006    0.000    1.313  300  35.020   2.000   0.000   0.000 -63.500   2.000
  1007    0.000    1.330  300  34.501   2.000   0.000   0.000 -63.500   2.000
  1008    0.000    1.347  300  33.995   2.000   0.000   0.000 -63.500   2.000
  1009    0.000    1.365  300  33.502   2.000   0.000   0.000 -63.500   2.000
  1010    0.000    1.382  300  33.022   2.000   0.000   0.000 -63.500   2.000
  1011    0.000    1.400  300  32.553   2.000   0.000   0.000 -63.500   2.000
  1012    0.000    1.418  300  32.097   2.000   0.000   0.000 -63.500   2.000
  1013    0.000    1.435  300  31.651   2.000   0.000   0.000 -63.500   2.000
  1014    0.000    1.453  300  31.217   2.000   0.000   0.000 -63.500   2.000
  1015    0.000    1.471  300  30.793   2.000   0.000   0.000 -63.500   2.000
  1016    0.000    1.489  300  30.379   2.000   0.000   0.000 -63.500   2.000
  1017    0.000    1.508  300  29.976   2.000   0.000   0.000 -63.500   2.000
  1018    0.000    1.526  300  29.582   2.000   0.000   0.000 -63.500   2.000
  1019    0.000    1.544  300  29.197   2.000   0.000   0.000 -63.500   2.000
  1020    0.000    1.562  300  28.821   2.000   0.000   0.000 -63.500   2.000
